# Output of JWST_backgrounds version 1.1.2
# background cache version 1.0

# for RA=53.095833, DEC=-27.8572222 On calendar day 281
# Columns: 
# - Wavelength [micron] 
# - Total background (MJy/sr)
# - In-field zodiacal light (MJy/sr)
# - In-field galactic light (MJy/sr)
# - Stray light (MJy/sr)
# - Thermal self-emission (MJy/sr)
0.500000    0.1727    0.1502    0.0015    0.0210    0.0000
0.600000    0.2349    0.1986    0.0021    0.0342    0.0000
0.700000    0.2625    0.2229    0.0027    0.0369    0.0000
0.800000    0.2723    0.2301    0.0033    0.0389    0.0000
0.900000    0.2694    0.2260    0.0038    0.0396    0.0000
1.000000    0.2702    0.2153    0.0043    0.0506    0.0000
1.100000    0.2543    0.2011    0.0048    0.0484    0.0000
1.200000    0.2367    0.1854    0.0052    0.0461    0.0000
1.300000    0.2227    0.1730    0.0056    0.0442    0.0000
1.400000    0.2125    0.1638    0.0060    0.0427    0.0000
1.500000    0.2023    0.1548    0.0063    0.0412    0.0000
1.600000    0.1924    0.1460    0.0066    0.0398    0.0000
1.700000    0.1829    0.1376    0.0068    0.0384    0.0000
1.800000    0.1695    0.1298    0.0070    0.0327    0.0000
1.900000    0.1611    0.1224    0.0072    0.0315    0.0000
2.000000    0.1533    0.1155    0.0074    0.0304    0.0000
2.100000    0.1465    0.1092    0.0075    0.0298    0.0000
2.200000    0.1401    0.1032    0.0075    0.0293    0.0000
2.300000    0.1329    0.0966    0.0076    0.0287    0.0000
2.400000    0.1263    0.0904    0.0077    0.0281    0.0000
2.500000    0.1201    0.0848    0.0077    0.0276    0.0000
2.600000    0.1145    0.0796    0.0077    0.0272    0.0000
2.700000    0.1093    0.0748    0.0077    0.0267    0.0000
2.800000    0.1045    0.0704    0.0077    0.0263    0.0000
2.900000    0.0929    0.0663    0.0077    0.0189    0.0000
3.000000    0.0887    0.0625    0.0077    0.0185    0.0000
3.100000    0.0847    0.0590    0.0077    0.0180    0.0000
3.200000    0.0814    0.0557    0.0079    0.0177    0.0000
3.300000    0.0796    0.0527    0.0088    0.0181    0.0001
3.400000    0.0743    0.0499    0.0076    0.0167    0.0001
3.500000    0.0854    0.0598    0.0075    0.0179    0.0002
3.700000    0.0932    0.0668    0.0074    0.0186    0.0003
4.000000    0.1207    0.0912    0.0074    0.0211    0.0009
4.250000    0.1589    0.1285    0.0073    0.0212    0.0019
4.500000    0.2224    0.1848    0.0073    0.0269    0.0035
4.750000    0.3103    0.2626    0.0073    0.0344    0.0061
5.000000    0.4236    0.3627    0.0074    0.0437    0.0099
5.100000    0.4866    0.4180    0.0074    0.0493    0.0118
5.200000    0.5568    0.4797    0.0075    0.0555    0.0140
5.300000    0.6360    0.5478    0.0085    0.0631    0.0165
5.400000    0.7200    0.6227    0.0078    0.0701    0.0194
5.500000    0.8139    0.7045    0.0082    0.0787    0.0225
5.700000    1.0296    0.8896    0.0110    0.0991    0.0299
5.900000    1.2744    1.1040    0.0111    0.1206    0.0388
6.100000    1.5638    1.3482    0.0185    0.1477    0.0495
6.300000    1.9046    1.6221    0.0343    0.1861    0.0621
6.500000    2.2278    1.9251    0.0195    0.2063    0.0769
6.700000    2.6069    2.2563    0.0180    0.2387    0.0940
6.900000    3.0242    2.6142    0.0201    0.2763    0.1136
7.100000    3.4712    2.9972    0.0217    0.3162    0.1360
7.300000    3.9556    3.4032    0.0283    0.3623    0.1617
7.500000    4.4806    3.8302    0.0429    0.4166    0.1909
7.700000    5.0213    4.2756    0.0522    0.4692    0.2243
7.900000    5.5542    4.7370    0.0440    0.5108    0.2623
8.100000    6.1026    5.2120    0.0331    0.5518    0.3057
8.300000    6.6844    5.6981    0.0306    0.6004    0.3553
8.500000    7.2922    6.1926    0.0333    0.6543    0.4121
8.700000    7.9080    6.6932    0.0317    0.7057    0.4774
8.900000    8.5245    7.1975    0.0226    0.7520    0.5523
9.100000    9.1663    7.7033    0.0203    0.8041    0.6386
9.300000    9.8232    8.2085    0.0193    0.8575    0.7379
9.500000    10.4938    8.7110    0.0191    0.9116    0.8522
9.700000    11.1774    9.2090    0.0202    0.9645    0.9837
9.900000    11.8758    9.7008    0.0210    1.0190    1.1350
10.100000    12.5829    10.1847    0.0206    1.0696    1.3080
10.300000    13.3034    10.6595    0.0203    1.1166    1.5070
10.500000    14.0445    11.1238    0.0222    1.1644    1.7340
10.700000    14.8040    11.5766    0.0237    1.2107    1.9930
10.900000    15.5869    12.0167    0.0266    1.2566    2.2870
11.100000    16.4099    12.4434    0.0376    1.3079    2.6210
11.300000    17.2695    12.8560    0.0537    1.3618    2.9980
11.500000    18.1189    13.2537    0.0473    1.3958    3.4220
11.700000    18.9912    13.6362    0.0337    1.4223    3.8990
11.900000    19.9258    14.0030    0.0324    1.4574    4.4330
12.100000    20.9647    14.4063    0.0337    1.4968    5.0280
12.300000    22.1189    14.8505    0.0353    1.5421    5.6910
12.500000    23.3329    15.2842    0.0366    1.5861    6.4260
12.700000    24.6114    15.7070    0.0376    1.6287    7.2380
12.900000    25.9554    16.1187    0.0353    1.6675    8.1340
13.100000    27.3713    16.5190    0.0309    1.7034    9.1180
13.300000    28.8767    16.9077    0.0289    1.7401    10.2000
13.500000    30.4713    17.2848    0.0291    1.7774    11.3800
13.700000    32.1613    17.6501    0.0284    1.8127    12.6700
13.900000    33.9469    18.0037    0.0269    1.8463    14.0700
14.100000    35.8529    18.3455    0.0273    1.8802    15.6000
14.300000    37.8645    18.6755    0.0268    1.9122    17.2500
14.500000    40.0029    18.9937    0.0262    1.9429    19.0400
14.700000    42.2679    19.3004    0.0253    1.9722    20.9700
14.900000    44.6715    19.5955    0.0250    2.0010    23.0500
15.100000    47.2229    19.8793    0.0249    2.0287    25.2900
15.300000    49.9312    20.1517    0.0245    2.0550    27.7000
15.500000    52.8116    20.4131    0.0264    2.0821    30.2900
16.500000    70.0434    21.5603    0.0279    2.1953    46.2600
17.500000    93.1739    22.4604    0.0295    2.2839    68.4000
18.500000    124.2039    23.1420    0.0309    2.3509    98.6800
19.500000    165.7654    23.6337    0.0325    2.3992    139.7000
20.500000    221.3285    23.9627    0.0342    2.4315    194.9000
21.500000    295.2402    24.1540    0.0359    2.4502    268.6000
22.500000    392.7250    24.2298    0.0377    2.4576    366.0000
23.500000    519.9043    24.2095    0.0395    2.4554    493.2000
24.500000    683.7967    24.1098    0.0414    2.4455    657.2000
25.500000    891.8868    23.7350    0.0435    2.4082    865.7000
26.500000    1152.5003    23.1084    0.0460    2.3459    1127.0000
27.500000    1474.7857    22.4561    0.0485    2.2811    1450.0000
28.500000    1867.0540    21.7879    0.0512    2.2148    1843.0000
29.500000    2338.3139    21.1121    0.0541    2.1478    2315.0000
30.500000    2896.5726    20.4349    0.0570    2.0807    2874.0000
31.000000    3147.2033    20.0975    0.0584    2.0473    3125.0000
